##TITLE=No Description
##DATA TYPE=INFRARED SPECTRUM
##XUNITS=1/CM
##YUNITS=%T
399.264912  	81.708257 
401.193728  	82.091553 
403.122544  	83.704511 
405.051360  	85.023196 
406.980176  	85.395818 
408.908992  	86.284187 
410.837808  	87.030326 
412.766624  	87.477815 
414.695440  	88.751482 
416.624256  	88.891443 
418.553072  	88.038919 
420.481888  	88.403722 
422.410704  	89.555792 
424.339520  	89.977578 
426.268336  	90.125637 
428.197152  	90.237869 
430.125968  	90.521532 
432.054784  	90.687525 
433.983600  	90.626623 
435.912416  	90.507827 
437.841232  	90.499260 
439.770048  	90.679345 
441.698864  	90.235264 
443.627680  	90.259729 
445.556496  	90.731482 
447.485312  	90.868164 
449.414128  	90.973063 
451.342944  	91.042778 
453.271760  	91.349355 
455.200576  	91.240566 
457.129392  	91.161876 
459.058208  	91.627033 
460.987024  	91.711914 
462.915840  	91.601300 
464.844656  	91.715589 
466.773472  	91.796468 
468.702288  	91.902734 
470.631104  	92.093348 
472.559920  	92.006249 
474.488736  	91.925861 
476.417552  	92.154895 
478.346368  	92.020408 
480.275184  	91.951062 
482.204000  	91.674944 
484.132816  	91.776927 
486.061632  	92.083826 
487.990448  	92.148800 
489.919264  	91.905147 
491.848080  	91.661709 
493.776896  	91.962292 
495.705712  	92.317126 
497.634528  	92.349537 
499.563344  	92.347860 
501.492160  	92.173649 
503.420976  	92.225647 
505.349792  	92.208783 
507.278608  	92.023003 
509.207424  	92.112402 
511.136240  	92.178886 
513.065056  	92.115092 
514.993872  	91.984370 
516.922688  	91.931208 
518.851504  	91.856529 
520.780320  	91.561038 
522.709136  	91.537072 
524.637952  	91.279364 
526.566768  	90.842288 
528.495584  	90.790348 
530.424400  	90.818643 
532.353216  	90.650919 
534.282032  	90.702294 
536.210848  	90.909626 
538.139664  	91.001081 
540.068480  	91.064235 
541.997296  	91.281391 
543.926112  	91.550590 
545.854928  	91.674028 
547.783744  	91.752525 
549.712560  	91.892017 
551.641376  	92.094378 
553.570192  	92.264328 
555.499008  	92.348355 
557.427824  	92.237384 
559.356640  	92.412986 
561.285456  	92.657031 
563.214272  	92.683222 
565.143088  	92.842738 
567.071904  	92.933702 
569.000720  	92.905883 
570.929536  	92.904273 
572.858352  	92.981698 
574.787168  	92.933428 
576.715984  	92.906230 
578.644800  	92.926464 
580.573616  	92.885492 
582.502432  	93.054567 
584.431248  	93.180619 
586.360064  	93.063326 
588.288880  	93.009020 
590.217696  	92.993511 
592.146512  	92.868852 
594.075328  	92.646985 
596.004144  	92.571049 
597.932960  	92.324304 
599.861776  	91.865971 
601.790592  	91.335588 
603.719408  	90.790468 
605.648224  	90.420396 
607.577040  	90.088881 
609.505856  	89.659906 
611.434672  	89.368012 
613.363488  	89.310564 
615.292304  	89.237010 
617.221120  	89.185760 
619.149936  	89.398724 
621.078752  	89.640687 
623.007568  	90.026383 
624.936384  	90.608657 
626.865200  	91.397552 
628.794016  	92.114433 
630.722832  	92.609988 
632.651648  	92.891606 
634.580464  	93.158028 
636.509280  	93.391711 
638.438096  	93.532557 
640.366912  	93.701044 
642.295728  	93.822104 
644.224544  	93.914256 
646.153360  	94.045195 
648.082176  	94.194519 
650.010992  	94.180163 
651.939808  	94.077586 
653.868624  	94.094528 
655.797440  	94.142054 
657.726256  	94.126336 
659.655072  	94.086181 
661.583888  	94.073394 
663.512704  	94.231488 
665.441520  	94.306701 
667.370336  	94.186925 
669.299152  	94.534286 
671.227968  	94.661210 
673.156784  	94.720854 
675.085600  	94.739307 
677.014416  	94.765198 
678.943232  	94.736109 
680.872048  	94.731273 
682.800864  	94.783776 
684.729680  	94.872746 
686.658496  	94.921501 
688.587312  	94.852022 
690.516128  	94.794061 
692.444944  	94.841966 
694.373760  	94.816679 
696.302576  	94.753653 
698.231392  	94.720962 
700.160208  	94.653867 
702.089024  	94.533937 
704.017840  	94.388815 
705.946656  	94.278802 
707.875472  	94.074196 
709.804288  	93.737264 
711.733104  	93.439576 
713.661920  	93.067908 
715.590736  	92.733452 
717.519552  	92.414261 
719.448368  	91.999160 
721.377184  	91.663369 
723.306000  	91.425111 
725.234816  	91.137962 
727.163632  	90.908561 
729.092448  	90.763958 
731.021264  	90.772340 
732.950080  	90.904859 
734.878896  	91.073676 
736.807712  	91.176700 
738.736528  	91.360374 
740.665344  	91.595817 
742.594160  	91.898193 
744.522976  	92.278980 
746.451792  	92.684456 
748.380608  	93.005053 
750.309424  	93.232901 
752.238240  	93.377992 
754.167056  	93.465909 
756.095872  	93.505569 
758.024688  	93.501481 
759.953504  	93.573578 
761.882320  	93.591475 
763.811136  	93.476504 
765.739952  	93.404751 
767.668768  	93.245106 
769.597584  	92.965139 
771.526400  	92.626462 
773.455216  	92.176298 
775.384032  	91.607686 
777.312848  	90.992291 
779.241664  	90.341326 
781.170480  	89.829745 
783.099296  	89.619303 
785.028112  	89.682598 
786.956928  	89.988410 
788.885744  	90.528218 
790.814560  	91.150941 
792.743376  	91.775016 
794.672192  	92.336530 
796.601008  	92.774361 
798.529824  	93.112764 
800.458640  	93.376873 
802.387456  	93.495991 
804.316272  	93.562382 
806.245088  	93.585876 
808.173904  	93.582235 
810.102720  	93.536159 
812.031536  	93.501194 
813.960352  	93.499679 
815.889168  	93.494154 
817.817984  	93.512302 
819.746800  	93.510799 
821.675616  	93.590078 
823.604432  	93.684850 
825.533248  	93.731726 
827.462064  	93.764281 
829.390880  	93.799411 
831.319696  	93.842638 
833.248512  	93.900620 
835.177328  	93.839850 
837.106144  	93.745388 
839.034960  	93.669382 
840.963776  	93.532065 
842.892592  	93.320824 
844.821408  	93.102369 
846.750224  	92.901030 
848.679040  	92.608239 
850.607856  	92.284091 
852.536672  	91.917039 
854.465488  	91.430676 
856.394304  	90.921141 
858.323120  	90.320108 
860.251936  	89.728648 
862.180752  	89.224014 
864.109568  	88.925420 
866.038384  	88.797653 
867.967200  	88.798538 
869.896016  	89.034009 
871.824832  	89.439341 
873.753648  	89.882184 
875.682464  	90.339098 
877.611280  	90.806733 
879.540096  	91.268421 
881.468912  	91.627953 
883.397728  	91.869826 
885.326544  	92.071919 
887.255360  	92.250630 
889.184176  	92.417407 
891.112992  	92.602621 
893.041808  	92.791465 
894.970624  	92.964797 
896.899440  	93.214691 
898.828256  	93.503268 
900.757072  	93.719979 
902.685888  	93.836712 
904.614704  	93.849035 
906.543520  	93.754377 
908.472336  	93.682657 
910.401152  	93.619042 
912.329968  	93.514123 
914.258784  	93.416626 
916.187600  	93.388520 
918.116416  	93.372142 
920.045232  	93.368537 
921.974048  	93.350375 
923.902864  	93.307271 
925.831680  	93.269183 
927.760496  	93.248558 
929.689312  	93.152637 
931.618128  	93.058946 
933.546944  	92.989164 
935.475760  	92.929557 
937.404576  	92.869136 
939.333392  	92.768301 
941.262208  	92.641241 
943.191024  	92.502459 
945.119840  	92.298838 
947.048656  	92.108910 
948.977472  	91.994801 
950.906288  	91.891806 
952.835104  	91.823244 
954.763920  	91.849835 
956.692736  	91.917662 
958.621552  	91.993380 
960.550368  	92.003162 
962.479184  	91.989855 
964.408000  	91.920821 
966.336816  	91.844364 
968.265632  	91.775685 
970.194448  	91.670725 
972.123264  	91.537511 
974.052080  	91.423959 
975.980896  	91.253378 
977.909712  	91.027280 
979.838528  	90.853750 
981.767344  	90.681756 
983.696160  	90.455027 
985.624976  	90.239325 
987.553792  	90.015376 
989.482608  	89.779423 
991.411424  	89.555778 
993.340240  	89.331673 
995.269056  	89.081392 
997.197872  	88.807678 
999.126688  	88.481501 
1001.055504  	88.098362 
1002.984320  	87.713792 
1004.913136  	87.231038 
1006.841952  	86.677492 
1008.770768  	86.028990 
1010.699584  	85.194571 
1012.628400  	84.174719 
1014.557216  	82.950874 
1016.486032  	81.436265 
1018.414848  	79.659621 
1020.343664  	77.680235 
1022.272480  	75.640343 
1024.201296  	73.744387 
1026.130112  	72.224740 
1028.058928  	71.301460 
1029.987744  	71.092541 
1031.916560  	71.526014 
1033.845376  	72.338708 
1035.774192  	73.363525 
1037.703008  	74.573624 
1039.631824  	75.792365 
1041.560640  	76.932860 
1043.489456  	77.881535 
1045.418272  	78.531562 
1047.347088  	78.772516 
1049.275904  	78.570458 
1051.204720  	77.964741 
1053.133536  	77.098601 
1055.062352  	76.055072 
1056.991168  	74.964689 
1058.919984  	73.903715 
1060.848800  	72.990264 
1062.777616  	72.168337 
1064.706432  	71.265388 
1066.635248  	70.042468 
1068.564064  	68.448366 
1070.492880  	66.445154 
1072.421696  	64.230339 
1074.350512  	62.152266 
1076.279328  	60.515356 
1078.208144  	59.611519 
1080.136960  	59.632297 
1082.065776  	60.609252 
1083.994592  	62.491738 
1085.923408  	65.077831 
1087.852224  	68.003738 
1089.781040  	70.841000 
1091.709856  	73.212055 
1093.638672  	74.912132 
1095.567488  	75.866467 
1097.496304  	76.165452 
1099.425120  	76.174384 
1101.353936  	76.161229 
1103.282752  	76.359372 
1105.211568  	76.725146 
1107.140384  	77.125296 
1109.069200  	77.395657 
1110.998016  	77.429764 
1112.926832  	77.356211 
1114.855648  	77.508135 
1116.784464  	78.115882 
1118.713280  	79.300315 
1120.642096  	80.961193 
1122.570912  	82.865353 
1124.499728  	84.667751 
1126.428544  	86.140019 
1128.357360  	87.196921 
1130.286176  	87.768451 
1132.214992  	87.917162 
1134.143808  	87.733827 
1136.072624  	87.242382 
1138.001440  	86.407050 
1139.930256  	85.205002 
1141.859072  	83.634964 
1143.787888  	81.687427 
1145.716704  	79.423667 
1147.645520  	76.951788 
1149.574336  	74.474035 
1151.503152  	72.165778 
1153.431968  	70.196075 
1155.360784  	68.692194 
1157.289600  	67.700097 
1159.218416  	67.153700 
1161.147232  	67.022269 
1163.076048  	67.150668 
1165.004864  	67.506642 
1166.933680  	68.058916 
1168.862496  	68.763290 
1170.791312  	69.609111 
1172.720128  	70.564056 
1174.648944  	71.633942 
1176.577760  	72.769930 
1178.506576  	73.893393 
1180.435392  	75.098713 
1182.364208  	76.267421 
1184.293024  	77.411809 
1186.221840  	78.517938 
1188.150656  	79.574994 
1190.079472  	80.536961 
1192.008288  	81.323244 
1193.937104  	82.019672 
1195.865920  	82.647027 
1197.794736  	83.158501 
1199.723552  	83.551666 
1201.652368  	83.890314 
1203.581184  	84.073149 
1205.510000  	84.177333 
1207.438816  	84.281276 
1209.367632  	84.283109 
1211.296448  	84.148175 
1213.225264  	83.971295 
1215.154080  	83.793838 
1217.082896  	83.536526 
1219.011712  	83.254075 
1220.940528  	83.020037 
1222.869344  	82.764546 
1224.798160  	82.453246 
1226.726976  	82.130967 
1228.655792  	81.779896 
1230.584608  	81.450500 
1232.513424  	81.118501 
1234.442240  	80.732766 
1236.371056  	80.347844 
1238.299872  	79.963536 
1240.228688  	79.589526 
1242.157504  	79.179974 
1244.086320  	78.781308 
1246.015136  	78.382606 
1247.943952  	77.971148 
1249.872768  	77.613434 
1251.801584  	77.310615 
1253.730400  	77.131546 
1255.659216  	77.162705 
1257.588032  	77.436077 
1259.516848  	78.017986 
1261.445664  	78.984862 
1263.374480  	80.214725 
1265.303296  	81.532341 
1267.232112  	82.815445 
1269.160928  	84.000426 
1271.089744  	85.068102 
1273.018560  	86.058304 
1274.947376  	86.942245 
1276.876192  	87.730859 
1278.805008  	88.444050 
1280.733824  	89.062556 
1282.662640  	89.575175 
1284.591456  	89.968754 
1286.520272  	90.250327 
1288.449088  	90.340559 
1290.377904  	90.317516 
1292.306720  	90.210684 
1294.235536  	90.072718 
1296.164352  	89.991462 
1298.093168  	89.962208 
1300.021984  	89.997936 
1301.950800  	90.090749 
1303.879616  	90.220878 
1305.808432  	90.397634 
1307.737248  	90.543079 
1309.666064  	90.676057 
1311.594880  	90.751331 
1313.523696  	90.831644 
1315.452512  	90.882477 
1317.381328  	90.846069 
1319.310144  	90.742275 
1321.238960  	90.637877 
1323.167776  	90.499281 
1325.096592  	90.322706 
1327.025408  	90.075007 
1328.954224  	89.829318 
1330.883040  	89.619049 
1332.811856  	89.430031 
1334.740672  	89.187536 
1336.669488  	88.970020 
1338.598304  	88.849455 
1340.527120  	88.946153 
1342.455936  	89.131179 
1344.384752  	89.266671 
1346.313568  	89.381553 
1348.242384  	89.496809 
1350.171200  	89.621148 
1352.100016  	89.703683 
1354.028832  	89.776947 
1355.957648  	89.866216 
1357.886464  	89.860772 
1359.815280  	89.701444 
1361.744096  	89.390562 
1363.672912  	89.129312 
1365.601728  	88.701945 
1367.530544  	87.849584 
1369.459360  	86.703826 
1371.388176  	85.509025 
1373.316992  	84.583230 
1375.245808  	84.417478 
1377.174624  	84.912832 
1379.103440  	85.793056 
1381.032256  	86.781980 
1382.961072  	87.533852 
1384.889888  	87.796167 
1386.818704  	87.631402 
1388.747520  	87.221046 
1390.676336  	86.418035 
1392.605152  	85.165002 
1394.533968  	83.532880 
1396.462784  	82.024436 
1398.391600  	80.981919 
1400.320416  	80.679222 
1402.249232  	81.056456 
1404.178048  	82.050599 
1406.106864  	83.553268 
1408.035680  	84.800523 
1409.964496  	85.550287 
1411.893312  	85.789376 
1413.822128  	85.569809 
1415.750944  	85.070553 
1417.679760  	84.623638 
1419.608576  	85.052020 
1421.537392  	85.734481 
1423.466208  	86.419747 
1425.395024  	87.400782 
1427.323840  	88.033271 
1429.252656  	88.335114 
1431.181472  	88.460941 
1433.110288  	88.179943 
1435.039104  	87.438357 
1436.967920  	86.602445 
1438.896736  	85.945398 
1440.825552  	85.159296 
1442.754368  	84.451994 
1444.683184  	83.950613 
1446.612000  	83.717880 
1448.540816  	83.973345 
1450.469632  	84.516938 
1452.398448  	85.057095 
1454.327264  	85.399325 
1456.256080  	85.729443 
1458.184896  	86.860689 
1460.113712  	87.664313 
1462.042528  	88.082717 
1463.971344  	88.405317 
1465.900160  	89.065622 
1467.828976  	89.508482 
1469.757792  	89.612949 
1471.686608  	89.627962 
1473.615424  	90.066639 
1475.544240  	90.312447 
1477.473056  	90.527897 
1479.401872  	90.500355 
1481.330688  	90.317767 
1483.259504  	90.062357 
1485.188320  	89.545031 
1487.117136  	88.870685 
1489.045952  	88.137897 
1490.974768  	87.593532 
1492.903584  	86.989250 
1494.832400  	86.120562 
1496.761216  	85.284320 
1498.690032  	84.803248 
1500.618848  	84.482919 
1502.547664  	84.235557 
1504.476480  	83.882453 
1506.405296  	84.130978 
1508.334112  	85.485083 
1510.262928  	86.523408 
1512.191744  	87.616481 
1514.120560  	88.502231 
1516.049376  	89.263001 
1517.978192  	90.269328 
1519.907008  	90.716996 
1521.835824  	91.622304 
1523.764640  	92.327648 
1525.693456  	92.711495 
1527.622272  	93.210168 
1529.551088  	93.601807 
1531.479904  	93.566252 
1533.408720  	93.740667 
1535.337536  	94.077276 
1537.266352  	93.748648 
1539.195168  	93.383671 
1541.123984  	93.710739 
1543.052800  	93.959963 
1544.981616  	94.255141 
1546.910432  	94.388750 
1548.839248  	94.203167 
1550.768064  	94.160680 
1552.696880  	94.054830 
1554.625696  	93.851564 
1556.554512  	93.374479 
1558.483328  	92.896126 
1560.412144  	93.845094 
1562.340960  	93.950829 
1564.269776  	93.817939 
1566.198592  	93.720740 
1568.127408  	93.526926 
1570.056224  	93.568152 
1571.985040  	93.637094 
1573.913856  	93.343347 
1575.842672  	93.234583 
1577.771488  	93.402672 
1579.700304  	93.362580 
1581.629120  	93.250323 
1583.557936  	93.182289 
1585.486752  	93.064282 
1587.415568  	92.908606 
1589.344384  	92.697766 
1591.273200  	92.504464 
1593.202016  	92.182630 
1595.130832  	91.903402 
1597.059648  	91.612789 
1598.988464  	91.215035 
1600.917280  	90.651177 
1602.846096  	90.095013 
1604.774912  	89.440961 
1606.703728  	88.706613 
1608.632544  	87.859263 
1610.561360  	86.963391 
1612.490176  	85.894826 
1614.418992  	84.703214 
1616.347808  	83.232989 
1618.276624  	81.888974 
1620.205440  	80.574613 
1622.134256  	79.081268 
1624.063072  	77.423936 
1625.991888  	76.013034 
1627.920704  	74.327734 
1629.849520  	72.622930 
1631.778336  	70.821085 
1633.707152  	68.982091 
1635.635968  	66.626203 
1637.564784  	64.769929 
1639.493600  	63.247224 
1641.422416  	61.776560 
1643.351232  	60.250319 
1645.280048  	58.880878 
1647.208864  	57.557365 
1649.137680  	56.864050 
1651.066496  	56.021803 
1652.995312  	55.668927 
1654.924128  	56.233826 
1656.852944  	56.873838 
1658.781760  	57.813588 
1660.710576  	59.186684 
1662.639392  	61.404000 
1664.568208  	64.232790 
1666.497024  	66.571689 
1668.425840  	69.569563 
1670.354656  	73.939588 
1672.283472  	77.569870 
1674.212288  	80.958030 
1676.141104  	85.382120 
1678.069920  	88.208733 
1679.998736  	90.264499 
1681.927552  	91.484961 
1683.856368  	92.634577 
1685.785184  	94.265530 
1687.714000  	94.514736 
1689.642816  	94.761582 
1691.571632  	94.928006 
1693.500448  	94.693570 
1695.429264  	94.477429 
1697.358080  	94.361114 
1699.286896  	93.839988 
1701.215712  	93.956988 
1703.144528  	93.480151 
1705.073344  	92.789834 
1707.002160  	92.036890 
1708.930976  	90.980240 
1710.859792  	89.406506 
1712.788608  	87.380491 
1714.717424  	84.794370 
1716.646240  	81.852040 
1718.575056  	78.608718 
1720.503872  	75.980432 
1722.432688  	73.613374 
1724.361504  	71.464908 
1726.290320  	70.157075 
1728.219136  	69.435089 
1730.147952  	69.424732 
1732.076768  	69.752672 
1734.005584  	71.526547 
1735.934400  	73.919713 
1737.863216  	75.659439 
1739.792032  	78.422389 
1741.720848  	81.358332 
1743.649664  	84.072819 
1745.578480  	86.696936 
1747.507296  	88.889069 
1749.436112  	91.007259 
1751.364928  	93.180456 
1753.293744  	94.788363 
1755.222560  	95.574068 
1757.151376  	96.388993 
1759.080192  	96.918613 
1761.009008  	97.235485 
1762.937824  	97.799516 
1764.866640  	98.020554 
1766.795456  	98.034847 
1768.724272  	98.105205 
1770.653088  	98.021524 
1772.581904  	98.314839 
1774.510720  	98.609244 
1776.439536  	98.614900 
1778.368352  	98.567061 
1780.297168  	98.558108 
1782.225984  	98.662868 
1784.154800  	98.657890 
1786.083616  	98.763062 
1788.012432  	98.770912 
1789.941248  	98.568919 
1791.870064  	98.536339 
1793.798880  	98.840952 
1795.727696  	98.843655 
1797.656512  	98.777641 
1799.585328  	98.676979 
1801.514144  	98.761721 
1803.442960  	98.871473 
1805.371776  	98.954935 
1807.300592  	98.929361 
1809.229408  	98.922157 
1811.158224  	98.863282 
1813.087040  	98.894971 
1815.015856  	98.891347 
1816.944672  	98.981780 
1818.873488  	99.037258 
1820.802304  	99.026492 
1822.731120  	98.848223 
1824.659936  	98.765194 
1826.588752  	98.810789 
1828.517568  	98.676118 
1830.446384  	98.757220 
1832.375200  	98.926082 
1834.304016  	98.883586 
1836.232832  	98.891879 
1838.161648  	98.981363 
1840.090464  	98.962234 
1842.019280  	98.643151 
1843.948096  	98.599002 
1845.876912  	98.855205 
1847.805728  	98.940943 
1849.734544  	98.907207 
1851.663360  	98.935577 
1853.592176  	98.943335 
1855.520992  	98.934422 
1857.449808  	98.895813 
1859.378624  	98.899396 
1861.307440  	98.894429 
1863.236256  	98.890819 
1865.165072  	98.793914 
1867.093888  	98.670502 
1869.022704  	98.746675 
1870.951520  	98.965684 
1872.880336  	98.947987 
1874.809152  	99.004446 
1876.737968  	99.026166 
1878.666784  	99.010185 
1880.595600  	98.947852 
1882.524416  	98.935695 
1884.453232  	98.954294 
1886.382048  	98.906445 
1888.310864  	98.769316 
1890.239680  	98.847142 
1892.168496  	98.816874 
1894.097312  	98.725923 
1896.026128  	98.727227 
1897.954944  	98.860663 
1899.883760  	98.883378 
1901.812576  	98.814230 
1903.741392  	98.847796 
1905.670208  	98.871646 
1907.599024  	98.701743 
1909.527840  	98.766589 
1911.456656  	98.863159 
1913.385472  	98.886604 
1915.314288  	98.808374 
1917.243104  	98.789283 
1919.171920  	98.815394 
1921.100736  	98.810030 
1923.029552  	98.745906 
1924.958368  	98.765148 
1926.887184  	98.868577 
1928.816000  	98.911424 
1930.744816  	98.901688 
1932.673632  	98.823041 
1934.602448  	98.763385 
1936.531264  	98.954084 
1938.460080  	99.221467 
1940.388896  	99.219176 
1942.317712  	98.851712 
1944.246528  	98.820492 
1946.175344  	98.774474 
1948.104160  	98.852007 
1950.032976  	98.965519 
1951.961792  	99.083595 
1953.890608  	99.148949 
1955.819424  	99.241966 
1957.748240  	99.130143 
1959.677056  	99.040612 
1961.605872  	99.021410 
1963.534688  	99.280352 
1965.463504  	99.175740 
1967.392320  	99.096709 
1969.321136  	99.008107 
1971.249952  	99.064756 
1973.178768  	99.243186 
1975.107584  	99.530728 
1977.036400  	99.446622 
1978.965216  	99.383822 
1980.894032  	98.903898 
1982.822848  	99.072942 
1984.751664  	99.191458 
1986.680480  	99.139147 
1988.609296  	99.077131 
1990.538112  	98.974710 
1992.466928  	98.774460 
1994.395744  	99.071235 
1996.324560  	99.257199 
1998.253376  	99.364695 
2000.182192  	99.351765 
2002.111008  	99.451360 
2004.039824  	99.295594 
2005.968640  	99.127965 
2007.897456  	98.983953 
2009.826272  	99.286863 
2011.755088  	99.304558 
2013.683904  	99.355474 
2015.612720  	99.290048 
2017.541536  	99.421705 
2019.470352  	99.010106 
2021.399168  	98.721212 
2023.327984  	99.092240 
2025.256800  	99.624392 
2027.185616  	99.559213 
2029.114432  	99.331157 
2031.043248  	98.974980 
2032.972064  	99.209564 
2034.900880  	99.329134 
2036.829696  	99.368104 
2038.758512  	99.355383 
2040.687328  	99.225947 
2042.616144  	99.246633 
2044.544960  	99.135279 
2046.473776  	99.038203 
2048.402592  	99.100803 
2050.331408  	98.942109 
2052.260224  	98.995773 
2054.189040  	99.088224 
2056.117856  	99.034279 
2058.046672  	98.901443 
2059.975488  	98.971270 
2061.904304  	99.065033 
2063.833120  	99.119644 
2065.761936  	98.940492 
2067.690752  	99.110035 
2069.619568  	99.102862 
2071.548384  	99.047652 
2073.477200  	99.054944 
2075.406016  	99.005028 
2077.334832  	98.792840 
2079.263648  	98.665779 
2081.192464  	98.608137 
2083.121280  	98.760891 
2085.050096  	98.853094 
2086.978912  	98.922534 
2088.907728  	98.889322 
2090.836544  	98.926533 
2092.765360  	98.879665 
2094.694176  	98.849277 
2096.622992  	98.752646 
2098.551808  	98.798997 
2100.480624  	98.752422 
2102.409440  	98.863214 
2104.338256  	98.922852 
2106.267072  	98.729329 
2108.195888  	98.789276 
2110.124704  	98.943542 
2112.053520  	98.810853 
2113.982336  	98.699283 
2115.911152  	98.619582 
2117.839968  	98.687120 
2119.768784  	98.780466 
2121.697600  	98.723091 
2123.626416  	98.650134 
2125.555232  	98.758752 
2127.484048  	98.888930 
2129.412864  	99.030009 
2131.341680  	99.107779 
2133.270496  	99.258226 
2135.199312  	99.203258 
2137.128128  	99.129151 
2139.056944  	99.126942 
2140.985760  	99.241926 
2142.914576  	99.308754 
2144.843392  	99.336120 
2146.772208  	99.398707 
2148.701024  	99.265858 
2150.629840  	99.142261 
2152.558656  	99.530107 
2154.487472  	99.541245 
2156.416288  	99.563953 
2158.345104  	99.898729 
2160.273920  	100.000000 
2162.202736  	99.802180 
2164.131552  	99.940227 
2166.060368  	99.512249 
2167.989184  	99.289370 
2169.918000  	99.318309 
2171.846816  	99.291101 
2173.775632  	99.281091 
2175.704448  	99.493795 
2177.633264  	99.398727 
2179.562080  	99.115656 
2181.490896  	98.772751 
2183.419712  	98.821011 
2185.348528  	98.918209 
2187.277344  	99.084891 
2189.206160  	98.880276 
2191.134976  	99.062131 
2193.063792  	99.311932 
2194.992608  	99.299001 
2196.921424  	99.167927 
2198.850240  	99.080320 
2200.779056  	99.113203 
2202.707872  	99.198972 
2204.636688  	99.149334 
2206.565504  	99.005893 
2208.494320  	98.960189 
2210.423136  	98.993391 
2212.351952  	98.941405 
2214.280768  	98.713892 
2216.209584  	98.490653 
2218.138400  	98.454504 
2220.067216  	98.548163 
2221.996032  	98.792314 
2223.924848  	98.938048 
2225.853664  	98.822726 
2227.782480  	98.786398 
2229.711296  	98.850310 
2231.640112  	98.751381 
2233.568928  	98.673829 
2235.497744  	98.687120 
2237.426560  	98.820323 
2239.355376  	98.582046 
2241.284192  	98.516031 
2243.213008  	98.650599 
2245.141824  	98.724202 
2247.070640  	98.600230 
2248.999456  	98.477931 
2250.928272  	98.594617 
2252.857088  	98.849741 
2254.785904  	98.792655 
2256.714720  	98.721453 
2258.643536  	98.545544 
2260.572352  	98.414446 
2262.501168  	98.449775 
2264.429984  	98.513447 
2266.358800  	98.425279 
2268.287616  	98.374634 
2270.216432  	98.467089 
2272.145248  	98.501757 
2274.074064  	98.487348 
2276.002880  	98.398079 
2277.931696  	98.360059 
2279.860512  	98.516889 
2281.789328  	98.554690 
2283.718144  	98.441109 
2285.646960  	98.364290 
2287.575776  	98.375208 
2289.504592  	98.446261 
2291.433408  	98.404381 
2293.362224  	98.288671 
2295.291040  	98.300031 
2297.219856  	98.357292 
2299.148672  	98.280320 
2301.077488  	98.229103 
2303.006304  	98.237918 
2304.935120  	98.139568 
2306.863936  	98.098468 
2308.792752  	98.057336 
2310.721568  	98.055132 
2312.650384  	98.077102 
2314.579200  	98.065545 
2316.508016  	98.003773 
2318.436832  	97.946424 
2320.365648  	97.934842 
2322.294464  	98.022793 
2324.223280  	98.130290 
2326.152096  	98.212126 
2328.080912  	98.183982 
2330.009728  	98.244809 
2331.938544  	98.258385 
2333.867360  	98.192061 
2335.796176  	98.129711 
2337.724992  	98.196466 
2339.653808  	98.257880 
2341.582624  	98.348681 
2343.511440  	98.328338 
2345.440256  	98.435810 
2347.369072  	98.243306 
2349.297888  	97.897265 
2351.226704  	97.758830 
2353.155520  	97.845771 
2355.084336  	97.878334 
2357.013152  	98.037210 
2358.941968  	98.137449 
2360.870784  	98.270257 
2362.799600  	98.229533 
2364.728416  	98.250749 
2366.657232  	98.339393 
2368.586048  	98.359521 
2370.514864  	98.355159 
2372.443680  	98.389819 
2374.372496  	98.373451 
2376.301312  	98.319563 
2378.230128  	98.244031 
2380.158944  	98.160548 
2382.087760  	98.252412 
2384.016576  	98.358934 
2385.945392  	98.359917 
2387.874208  	98.306920 
2389.803024  	98.296258 
2391.731840  	98.346912 
2393.660656  	98.376767 
2395.589472  	98.382993 
2397.518288  	98.377299 
2399.447104  	98.398151 
2401.375920  	98.385190 
2403.304736  	98.331484 
2405.233552  	98.319842 
2407.162368  	98.308302 
2409.091184  	98.246650 
2411.020000  	98.288740 
2412.948816  	98.329942 
2414.877632  	98.282537 
2416.806448  	98.267433 
2418.735264  	98.390066 
2420.664080  	98.394426 
2422.592896  	98.373656 
2424.521712  	98.369796 
2426.450528  	98.288554 
2428.379344  	98.204691 
2430.308160  	98.152678 
2432.236976  	98.166583 
2434.165792  	98.248230 
2436.094608  	98.211610 
2438.023424  	98.247114 
2439.952240  	98.279257 
2441.881056  	98.260102 
2443.809872  	98.208606 
2445.738688  	98.158849 
2447.667504  	98.198882 
2449.596320  	98.247265 
2451.525136  	98.230306 
2453.453952  	98.228602 
2455.382768  	98.285530 
2457.311584  	98.275375 
2459.240400  	98.242785 
2461.169216  	98.272673 
2463.098032  	98.229754 
2465.026848  	98.148500 
2466.955664  	98.172778 
2468.884480  	98.212379 
2470.813296  	98.261029 
2472.742112  	98.318306 
2474.670928  	98.300836 
2476.599744  	98.306363 
2478.528560  	98.264381 
2480.457376  	98.258063 
2482.386192  	98.250543 
2484.315008  	98.252887 
2486.243824  	98.225794 
2488.172640  	98.209172 
2490.101456  	98.257358 
2492.030272  	98.293790 
2493.959088  	98.239730 
2495.887904  	98.277490 
2497.816720  	98.270929 
2499.745536  	98.273160 
2501.674352  	98.219691 
2503.603168  	98.185065 
2505.531984  	98.206864 
2507.460800  	98.223440 
2509.389616  	98.194462 
2511.318432  	98.219548 
2513.247248  	98.219892 
2515.176064  	98.223874 
2517.104880  	98.283308 
2519.033696  	98.232858 
2520.962512  	98.173142 
2522.891328  	98.249248 
2524.820144  	98.218213 
2526.748960  	98.210441 
2528.677776  	98.245567 
2530.606592  	98.225106 
2532.535408  	98.132867 
2534.464224  	98.087716 
2536.393040  	98.145841 
2538.321856  	98.207992 
2540.250672  	98.203389 
2542.179488  	98.231499 
2544.108304  	98.209014 
2546.037120  	98.174133 
2547.965936  	98.163177 
2549.894752  	98.127450 
2551.823568  	98.020859 
2553.752384  	97.997768 
2555.681200  	98.034616 
2557.610016  	98.122680 
2559.538832  	98.126032 
2561.467648  	98.067016 
2563.396464  	98.017848 
2565.325280  	98.006097 
2567.254096  	97.960980 
2569.182912  	97.988709 
2571.111728  	98.059911 
2573.040544  	98.086605 
2574.969360  	98.101396 
2576.898176  	98.067116 
2578.826992  	98.021616 
2580.755808  	98.041005 
2582.684624  	98.044566 
2584.613440  	98.054453 
2586.542256  	98.000411 
2588.471072  	97.945161 
2590.399888  	97.960105 
2592.328704  	98.030126 
2594.257520  	98.018513 
2596.186336  	98.012496 
2598.115152  	98.036286 
2600.043968  	98.015913 
2601.972784  	98.015460 
2603.901600  	98.040485 
2605.830416  	98.027946 
2607.759232  	98.036130 
2609.688048  	98.004125 
2611.616864  	97.981280 
2613.545680  	98.005432 
2615.474496  	98.061521 
2617.403312  	98.067817 
2619.332128  	98.078779 
2621.260944  	98.073788 
2623.189760  	98.093360 
2625.118576  	98.085506 
2627.047392  	98.041479 
2628.976208  	98.037838 
2630.905024  	98.060371 
2632.833840  	98.070438 
2634.762656  	98.126275 
2636.691472  	98.123680 
2638.620288  	98.072253 
2640.549104  	98.026258 
2642.477920  	98.027652 
2644.406736  	98.012410 
2646.335552  	98.015777 
2648.264368  	98.059489 
2650.193184  	98.056268 
2652.122000  	98.040858 
2654.050816  	98.045287 
2655.979632  	98.038143 
2657.908448  	98.015766 
2659.837264  	98.022671 
2661.766080  	98.056947 
2663.694896  	98.051331 
2665.623712  	98.017119 
2667.552528  	97.995823 
2669.481344  	98.005191 
2671.410160  	98.003101 
2673.338976  	98.016339 
2675.267792  	98.030600 
2677.196608  	97.995065 
2679.125424  	97.952104 
2681.054240  	97.970519 
2682.983056  	97.985093 
2684.911872  	98.012360 
2686.840688  	98.029768 
2688.769504  	98.024406 
2690.698320  	98.006861 
2692.627136  	97.987029 
2694.555952  	97.968842 
2696.484768  	97.968325 
2698.413584  	98.007144 
2700.342400  	98.018720 
2702.271216  	98.001222 
2704.200032  	97.985112 
2706.128848  	97.996275 
2708.057664  	98.020844 
2709.986480  	97.989963 
2711.915296  	97.981943 
2713.844112  	97.979965 
2715.772928  	97.967031 
2717.701744  	97.967026 
2719.630560  	98.000080 
2721.559376  	98.022600 
2723.488192  	98.009998 
2725.417008  	97.964134 
2727.345824  	97.950682 
2729.274640  	97.927049 
2731.203456  	97.943312 
2733.132272  	97.956122 
2735.061088  	97.950820 
2736.989904  	97.948486 
2738.918720  	97.963045 
2740.847536  	97.940726 
2742.776352  	97.938192 
2744.705168  	97.963600 
2746.633984  	97.961649 
2748.562800  	97.944616 
2750.491616  	97.930361 
2752.420432  	97.931001 
2754.349248  	97.936931 
2756.278064  	97.931466 
2758.206880  	97.967539 
2760.135696  	97.960518 
2762.064512  	97.923235 
2763.993328  	97.887599 
2765.922144  	97.886494 
2767.850960  	97.911051 
2769.779776  	97.893341 
2771.708592  	97.824115 
2773.637408  	97.764568 
2775.566224  	97.727023 
2777.495040  	97.718811 
2779.423856  	97.688918 
2781.352672  	97.681554 
2783.281488  	97.675660 
2785.210304  	97.643981 
2787.139120  	97.610055 
2789.067936  	97.611705 
2790.996752  	97.584016 
2792.925568  	97.547423 
2794.854384  	97.555740 
2796.783200  	97.599354 
2798.712016  	97.601541 
2800.640832  	97.587993 
2802.569648  	97.536621 
2804.498464  	97.483699 
2806.427280  	97.457163 
2808.356096  	97.453038 
2810.284912  	97.427928 
2812.213728  	97.333012 
2814.142544  	97.237064 
2816.071360  	97.220327 
2818.000176  	97.186419 
2819.928992  	97.126811 
2821.857808  	97.075541 
2823.786624  	97.072420 
2825.715440  	97.059006 
2827.644256  	97.059521 
2829.573072  	97.053949 
2831.501888  	97.008707 
2833.430704  	96.965850 
2835.359520  	96.954213 
2837.288336  	96.966917 
2839.217152  	96.924569 
2841.145968  	96.813511 
2843.074784  	96.748509 
2845.003600  	96.703942 
2846.932416  	96.632063 
2848.861232  	96.576836 
2850.790048  	96.505865 
2852.718864  	96.426163 
2854.647680  	96.324353 
2856.576496  	96.179431 
2858.505312  	96.064643 
2860.434128  	95.976207 
2862.362944  	95.895647 
2864.291760  	95.819970 
2866.220576  	95.722707 
2868.149392  	95.604912 
2870.078208  	95.518864 
2872.007024  	95.508720 
2873.935840  	95.480737 
2875.864656  	95.445990 
2877.793472  	95.430247 
2879.722288  	95.406096 
2881.651104  	95.398805 
2883.579920  	95.392467 
2885.508736  	95.398250 
2887.437552  	95.374420 
2889.366368  	95.356678 
2891.295184  	95.307210 
2893.224000  	95.241044 
2895.152816  	95.217043 
2897.081632  	95.211564 
2899.010448  	95.182972 
2900.939264  	95.127958 
2902.868080  	95.034282 
2904.796896  	94.920505 
2906.725712  	94.776577 
2908.654528  	94.651066 
2910.583344  	94.494541 
2912.512160  	94.271812 
2914.440976  	94.093135 
2916.369792  	93.959550 
2918.298608  	93.721720 
2920.227424  	93.476204 
2922.156240  	93.277671 
2924.085056  	93.072154 
2926.013872  	92.893602 
2927.942688  	92.739988 
2929.871504  	92.531238 
2931.800320  	92.371802 
2933.729136  	92.280192 
2935.657952  	92.191860 
2937.586768  	92.188867 
2939.515584  	92.300820 
2941.444400  	92.502347 
2943.373216  	92.737202 
2945.302032  	92.979118 
2947.230848  	93.225674 
2949.159664  	93.437038 
2951.088480  	93.633485 
2953.017296  	93.832031 
2954.946112  	94.030883 
2956.874928  	94.222263 
2958.803744  	94.392465 
2960.732560  	94.548905 
2962.661376  	94.685895 
2964.590192  	94.799045 
2966.519008  	94.916453 
2968.447824  	95.018509 
2970.376640  	95.082884 
2972.305456  	95.108295 
2974.234272  	95.128064 
2976.163088  	95.123004 
2978.091904  	95.105663 
2980.020720  	95.092578 
2981.949536  	95.040124 
2983.878352  	94.984727 
2985.807168  	95.001129 
2987.735984  	95.045981 
2989.664800  	95.142224 
2991.593616  	95.266112 
2993.522432  	95.438074 
2995.451248  	95.629478 
2997.380064  	95.814637 
2999.308880  	95.972034 
3001.237696  	96.145181 
3003.166512  	96.304432 
3005.095328  	96.438520 
3007.024144  	96.586051 
3008.952960  	96.722806 
3010.881776  	96.841706 
3012.810592  	96.991991 
3014.739408  	97.051151 
3016.668224  	97.079816 
3018.597040  	97.148792 
3020.525856  	97.194133 
3022.454672  	97.230856 
3024.383488  	97.298638 
3026.312304  	97.391965 
3028.241120  	97.423939 
3030.169936  	97.441813 
3032.098752  	97.513467 
3034.027568  	97.555692 
3035.956384  	97.589527 
3037.885200  	97.625746 
3039.814016  	97.682140 
3041.742832  	97.666948 
3043.671648  	97.624826 
3045.600464  	97.695218 
3047.529280  	97.775889 
3049.458096  	97.793150 
3051.386912  	97.790598 
3053.315728  	97.836003 
3055.244544  	97.883600 
3057.173360  	97.859437 
3059.102176  	97.912657 
3061.030992  	97.967129 
3062.959808  	97.916646 
3064.888624  	97.889135 
3066.817440  	97.958558 
3068.746256  	98.035817 
3070.675072  	98.039759 
3072.603888  	98.022600 
3074.532704  	98.010045 
3076.461520  	98.044653 
3078.390336  	98.071806 
3080.319152  	98.054891 
3082.247968  	98.073360 
3084.176784  	98.101384 
3086.105600  	98.086372 
3088.034416  	98.071446 
3089.963232  	98.133073 
3091.892048  	98.148602 
3093.820864  	98.115487 
3095.749680  	98.093475 
3097.678496  	98.063637 
3099.607312  	98.018306 
3101.536128  	98.029410 
3103.464944  	98.089380 
3105.393760  	98.140796 
3107.322576  	98.111594 
3109.251392  	98.088286 
3111.180208  	98.070554 
3113.109024  	98.093102 
3115.037840  	98.090979 
3116.966656  	98.109536 
3118.895472  	98.136431 
3120.824288  	98.115830 
3122.753104  	98.152998 
3124.681920  	98.180127 
3126.610736  	98.170640 
3128.539552  	98.173604 
3130.468368  	98.164591 
3132.397184  	98.148269 
3134.326000  	98.143925 
3136.254816  	98.185171 
3138.183632  	98.198730 
3140.112448  	98.182302 
3142.041264  	98.233857 
3143.970080  	98.278358 
3145.898896  	98.249247 
3147.827712  	98.195553 
3149.756528  	98.203059 
3151.685344  	98.262476 
3153.614160  	98.258935 
3155.542976  	98.204246 
3157.471792  	98.211906 
3159.400608  	98.260073 
3161.329424  	98.276013 
3163.258240  	98.252206 
3165.187056  	98.186675 
3167.115872  	98.195848 
3169.044688  	98.300851 
3170.973504  	98.314182 
3172.902320  	98.264460 
3174.831136  	98.310674 
3176.759952  	98.286966 
3178.688768  	98.246410 
3180.617584  	98.275059 
3182.546400  	98.291974 
3184.475216  	98.296531 
3186.404032  	98.339335 
3188.332848  	98.359439 
3190.261664  	98.337459 
3192.190480  	98.301103 
3194.119296  	98.265535 
3196.048112  	98.278490 
3197.976928  	98.320321 
3199.905744  	98.334984 
3201.834560  	98.318141 
3203.763376  	98.284738 
3205.692192  	98.282086 
3207.621008  	98.227656 
3209.549824  	98.294498 
3211.478640  	98.355942 
3213.407456  	98.316368 
3215.336272  	98.281132 
3217.265088  	98.290108 
3219.193904  	98.288068 
3221.122720  	98.340843 
3223.051536  	98.326642 
3224.980352  	98.275851 
3226.909168  	98.308389 
3228.837984  	98.335290 
3230.766800  	98.332300 
3232.695616  	98.288936 
3234.624432  	98.247402 
3236.553248  	98.273138 
3238.482064  	98.342871 
3240.410880  	98.356942 
3242.339696  	98.351757 
3244.268512  	98.342035 
3246.197328  	98.298105 
3248.126144  	98.283206 
3250.054960  	98.280386 
3251.983776  	98.289949 
3253.912592  	98.307187 
3255.841408  	98.325034 
3257.770224  	98.323611 
3259.699040  	98.331543 
3261.627856  	98.285576 
3263.556672  	98.231460 
3265.485488  	98.228684 
3267.414304  	98.251338 
3269.343120  	98.219988 
3271.271936  	98.239072 
3273.200752  	98.331964 
3275.129568  	98.357937 
3277.058384  	98.330883 
3278.987200  	98.262204 
3280.916016  	98.225511 
3282.844832  	98.224990 
3284.773648  	98.259317 
3286.702464  	98.287284 
3288.631280  	98.262837 
3290.560096  	98.277184 
3292.488912  	98.271754 
3294.417728  	98.242683 
3296.346544  	98.244288 
3298.275360  	98.273464 
3300.204176  	98.280307 
3302.132992  	98.278626 
3304.061808  	98.187695 
3305.990624  	98.181702 
3307.919440  	98.211061 
3309.848256  	98.152104 
3311.777072  	98.113895 
3313.705888  	98.170949 
3315.634704  	98.209344 
3317.563520  	98.222896 
3319.492336  	98.236064 
3321.421152  	98.252288 
3323.349968  	98.233577 
3325.278784  	98.212658 
3327.207600  	98.221367 
3329.136416  	98.241097 
3331.065232  	98.252540 
3332.994048  	98.227938 
3334.922864  	98.201646 
3336.851680  	98.191326 
3338.780496  	98.187084 
3340.709312  	98.203963 
3342.638128  	98.183524 
3344.566944  	98.219751 
3346.495760  	98.222951 
3348.424576  	98.184894 
3350.353392  	98.180624 
3352.282208  	98.136750 
3354.211024  	98.099137 
3356.139840  	98.104326 
3358.068656  	98.108751 
3359.997472  	98.075518 
3361.926288  	98.042045 
3363.855104  	98.079201 
3365.783920  	98.081504 
3367.712736  	98.047671 
3369.641552  	98.053857 
3371.570368  	98.093259 
3373.499184  	98.095685 
3375.428000  	98.045171 
3377.356816  	98.054248 
3379.285632  	97.991194 
3381.214448  	97.883507 
3383.143264  	97.896757 
3385.072080  	97.996081 
3387.000896  	97.999811 
3388.929712  	97.918770 
3390.858528  	97.882540 
3392.787344  	97.886193 
3394.716160  	97.876672 
3396.644976  	97.878195 
3398.573792  	97.911756 
3400.502608  	97.885924 
3402.431424  	97.848387 
3404.360240  	97.820219 
3406.289056  	97.813137 
3408.217872  	97.828793 
3410.146688  	97.767376 
3412.075504  	97.715355 
3414.004320  	97.728156 
3415.933136  	97.697311 
3417.861952  	97.635590 
3419.790768  	97.533915 
3421.719584  	97.535407 
3423.648400  	97.567859 
3425.577216  	97.563998 
3427.506032  	97.547874 
3429.434848  	97.503931 
3431.363664  	97.460037 
3433.292480  	97.493658 
3435.221296  	97.506631 
3437.150112  	97.511091 
3439.078928  	97.524331 
3441.007744  	97.469110 
3442.936560  	97.450465 
3444.865376  	97.424943 
3446.794192  	97.366226 
3448.723008  	97.434655 
3450.651824  	97.486919 
3452.580640  	97.404060 
3454.509456  	97.330510 
3456.438272  	97.313983 
3458.367088  	97.311779 
3460.295904  	97.281661 
3462.224720  	97.289405 
3464.153536  	97.327089 
3466.082352  	97.301168 
3468.011168  	97.288060 
3469.939984  	97.298860 
3471.868800  	97.349025 
3473.797616  	97.342598 
3475.726432  	97.325689 
3477.655248  	97.276203 
3479.584064  	97.278504 
3481.512880  	97.325558 
3483.441696  	97.361073 
3485.370512  	97.387550 
3487.299328  	97.365888 
3489.228144  	97.389250 
3491.156960  	97.415628 
3493.085776  	97.431207 
3495.014592  	97.440028 
3496.943408  	97.407640 
3498.872224  	97.381985 
3500.801040  	97.341671 
3502.729856  	97.337647 
3504.658672  	97.403255 
3506.587488  	97.453183 
3508.516304  	97.411343 
3510.445120  	97.450787 
3512.373936  	97.481282 
3514.302752  	97.525744 
3516.231568  	97.569742 
3518.160384  	97.566816 
3520.089200  	97.507154 
3522.018016  	97.414863 
3523.946832  	97.404403 
3525.875648  	97.446761 
3527.804464  	97.527943 
3529.733280  	97.623238 
3531.662096  	97.669447 
3533.590912  	97.664344 
3535.519728  	97.637680 
3537.448544  	97.627763 
3539.377360  	97.683687 
3541.306176  	97.662065 
3543.234992  	97.573044 
3545.163808  	97.541001 
3547.092624  	97.599874 
3549.021440  	97.625546 
3550.950256  	97.620107 
3552.879072  	97.639085 
3554.807888  	97.704947 
3556.736704  	97.737095 
3558.665520  	97.672088 
3560.594336  	97.635730 
3562.523152  	97.543619 
3564.451968  	97.280863 
3566.380784  	97.247586 
3568.309600  	97.590703 
3570.238416  	97.807935 
3572.167232  	97.851123 
3574.096048  	97.792617 
3576.024864  	97.782369 
3577.953680  	97.827247 
3579.882496  	97.797978 
3581.811312  	97.731912 
3583.740128  	97.622818 
3585.668944  	97.428918 
3587.597760  	97.638851 
3589.526576  	97.904065 
3591.455392  	97.790349 
3593.384208  	97.721491 
3595.313024  	97.871156 
3597.241840  	97.921438 
3599.170656  	97.880461 
3601.099472  	97.939309 
3603.028288  	97.991319 
3604.957104  	97.882961 
3606.885920  	97.810455 
3608.814736  	97.880673 
3610.743552  	97.851988 
3612.672368  	97.827685 
3614.601184  	97.810269 
3616.530000  	97.769175 
3618.458816  	97.951573 
3620.387632  	98.210603 
3622.316448  	98.220680 
3624.245264  	98.106589 
3626.174080  	97.858068 
3628.102896  	97.910367 
3630.031712  	98.362527 
3631.960528  	98.324000 
3633.889344  	98.459256 
3635.818160  	98.540742 
3637.746976  	98.496641 
3639.675792  	98.497935 
3641.604608  	98.471609 
3643.533424  	98.368544 
3645.462240  	98.103480 
3647.391056  	97.887173 
3649.319872  	98.237219 
3651.248688  	98.783402 
3653.177504  	98.672078 
3655.106320  	98.628410 
3657.035136  	98.908965 
3658.963952  	98.900613 
3660.892768  	98.863707 
3662.821584  	98.925831 
3664.750400  	98.915479 
3666.679216  	98.681613 
3668.608032  	98.608249 
3670.536848  	98.790842 
3672.465664  	98.527755 
3674.394480  	98.376577 
3676.323296  	98.912498 
3678.252112  	98.951657 
3680.180928  	99.117325 
3682.109744  	99.187918 
3684.038560  	99.058104 
3685.967376  	98.759046 
3687.896192  	98.689995 
3689.825008  	98.943524 
3691.753824  	99.216527 
3693.682640  	99.175413 
3695.611456  	99.072139 
3697.540272  	99.022482 
3699.469088  	98.914637 
3701.397904  	99.079751 
3703.326720  	99.275080 
3705.255536  	99.076221 
3707.184352  	98.866724 
3709.113168  	98.702616 
3711.041984  	98.794397 
3712.970800  	99.186014 
3714.899616  	99.270496 
3716.828432  	99.186773 
3718.757248  	99.087767 
3720.686064  	99.011863 
3722.614880  	99.031096 
3724.543696  	98.954011 
3726.472512  	99.004256 
3728.401328  	98.944626 
3730.330144  	98.732197 
3732.258960  	98.641264 
3734.187776  	98.593548 
3736.116592  	98.867524 
3738.045408  	99.071538 
3739.974224  	98.888293 
3741.903040  	98.558068 
3743.831856  	98.781244 
3745.760672  	99.045056 
3747.689488  	98.644053 
3749.618304  	98.701920 
3751.547120  	99.103146 
3753.475936  	99.222857 
3755.404752  	99.056535 
3757.333568  	99.014426 
3759.262384  	99.219168 
3761.191200  	99.366027 
3763.120016  	99.148626 
3765.048832  	99.128892 
3766.977648  	99.064177 
3768.906464  	99.036146 
3770.835280  	99.259630 
3772.764096  	99.383367 
3774.692912  	99.274550 
3776.621728  	99.111300 
3778.550544  	99.120033 
3780.479360  	99.258660 
3782.408176  	99.170177 
3784.336992  	99.193244 
3786.265808  	99.304512 
3788.194624  	99.342724 
3790.123440  	99.368507 
3792.052256  	99.278765 
3793.981072  	99.036801 
3795.909888  	99.088654 
3797.838704  	98.993426 
3799.767520  	98.741919 
3801.696336  	99.097930 
3803.625152  	99.137309 
3805.553968  	99.082641 
3807.482784  	99.408813 
3809.411600  	99.388544 
3811.340416  	99.210899 
3813.269232  	98.993292 
3815.198048  	99.017665 
3817.126864  	99.082666 
3819.055680  	98.829424 
3820.984496  	99.089251 
3822.913312  	99.258822 
3824.842128  	99.102268 
3826.770944  	99.154059 
3828.699760  	99.186267 
3830.628576  	99.121050 
3832.557392  	99.006784 
3834.486208  	98.828219 
3836.415024  	98.830712 
3838.343840  	99.063582 
3840.272656  	99.138244 
3842.201472  	99.193287 
3844.130288  	99.293016 
3846.059104  	99.289318 
3847.987920  	99.051309 
3849.916736  	98.647319 
3851.845552  	98.425475 
3853.774368  	99.245414 
3855.703184  	99.423090 
3857.632000  	99.293990 
3859.560816  	99.249740 
3861.489632  	99.093981 
3863.418448  	99.039259 
3865.347264  	99.129918 
3867.276080  	98.917002 
3869.204896  	98.993803 
3871.133712  	99.242406 
3873.062528  	99.182188 
3874.991344  	99.320026 
3876.920160  	99.217362 
3878.848976  	99.047640 
3880.777792  	99.091484 
3882.706608  	99.032632 
3884.635424  	99.086993 
3886.564240  	99.312215 
3888.493056  	99.196497 
3890.421872  	99.181706 
3892.350688  	99.352043 
3894.279504  	99.351372 
3896.208320  	99.173856 
3898.137136  	99.005581 
3900.065952  	98.949088 
3901.994768  	98.971379 
3903.923584  	99.185092 
3905.852400  	99.333358 
3907.781216  	99.350346 
3909.710032  	99.410179 
3911.638848  	99.437282 
3913.567664  	99.313337 
3915.496480  	99.196053 
3917.425296  	99.274707 
3919.354112  	99.334561 
3921.282928  	99.266492 
3923.211744  	99.272823 
3925.140560  	99.382451 
3927.069376  	99.379517 
3928.998192  	99.278599 
3930.927008  	99.265554 
3932.855824  	99.366121 
3934.784640  	99.445431 
3936.713456  	99.454904 
3938.642272  	99.409714 
3940.571088  	99.287875 
3942.499904  	99.327729 
3944.428720  	99.402712 
3946.357536  	99.360223 
3948.286352  	99.318983 
3950.215168  	99.399980 
3952.143984  	99.467332 
3954.072800  	99.467656 
3956.001616  	99.533726 
3957.930432  	99.544794 
3959.859248  	99.438387 
3961.788064  	99.435257 
3963.716880  	99.453211 
3965.645696  	99.469123 
3967.574512  	99.469677 
3969.503328  	99.431834 
3971.432144  	99.371667 
3973.360960  	99.384265 
3975.289776  	99.470458 
3977.218592  	99.515252 
3979.147408  	99.498623 
3981.076224  	99.499274 
3983.005040  	99.527113 
3984.933856  	99.468473 
3986.862672  	99.394180 
3988.791488  	99.372010 
3990.720304  	99.390274 
3992.649120  	99.391422 
3994.577936  	99.417447 
3996.506752  	99.477395 
3998.435568  	99.498704 
4000.364384  	99.510348 