/* /data/apr17/11bmb_3294.mda APR 12, 2017 01:23:16.472073 
# Run no. =               3294
# No. steps =             34053
# Scan time =             APR 12, 2017 01:23:16.472073
# Scan Comment =          UserControl Robotic Collection
# Sample Comment =        ANL0AC4032
# User sample name =      eel69B
# Composition =           MnB
# Proposal number =       51762
# Email(s) =              jdbocarsly@mrl.ucsb.edu, stephendwilson
# Temp (K) =              300.03
# Barcode ID =            UserControl Data
# Start 2theta (deg) =    -6.0
# End 2theta (deg) =      28.0
# Nominal 2theta step (deg) =     0.001
# Time per step (sec) =   0.1
# Actual 2theta step (deg) =     0.0009984375
# 100/Ring Current[0] =   0.983 
# Monitor I0 [0] =        8336019.6 
# Monitor I1 [0] =        7092664.5 
# Gonio._radius [mm] =    1000.0
# Calibration file =      /home/beams/USER11BM/Users/GUP51762/11bmb_3283.calib
# Calibrated wavelength = 0.414581
# Normalization factor  = 8.1774
# */ 
 0.5000000000 662.407183 37.744249
 0.5009984375 644.695050 37.128423
 0.5019968750 621.629450 36.504151
 0.5029953125 608.184310 36.151802
 0.5039937500 594.194565 35.555725
 0.5049921875 602.318074 35.941683
 0.5059906250 657.432397 37.549183
 0.5069890625 616.276425 36.332060
 0.5079875000 606.713511 36.120749
 0.5089859375 562.714533 34.673853
 0.5099843750 656.345888 37.367645
 0.5109828125 617.259881 36.332726
 0.5119812500 597.998223 35.888885
 0.5129796875 614.749444 36.180419
 0.5139781250 579.778872 35.245997
 0.5149765625 528.260435 33.566099
 0.5159750000 516.444564 33.148632
 0.5169734375 537.137746 33.901371
 0.5179718750 567.018218 34.577499
 0.5189703125 571.658342 34.888619
 0.5199687500 542.387832 33.972063
 0.5209671875 559.225046 34.331381
 0.5219656250 547.440098 34.183108
 0.5229640625 540.955801 33.886014
 0.5239625000 556.614390 34.123121
 0.5249609375 580.425961 35.127004
 0.5259593750 574.967732 34.894700
 0.5269578125 585.526945 35.106788
 0.5279562500 550.086460 33.905950
 0.5289546875 546.040960 33.835951
 0.5299531250 546.958549 33.867922
 0.5309515625 533.867471 33.442349
 0.5319500000 535.704273 33.383568
 0.5329484375 525.301327 33.034643
 0.5339468750 550.528934 33.956427
 0.5349453125 525.600074 33.086940
 0.5359437500 539.467539 33.744636
 0.5369421875 520.595541 33.157022
 0.5379406250 525.571429 33.276160
 0.5389390625 522.503948 33.354495
 0.5399375000 512.324271 32.991564
 0.5409359375 510.151542 32.819186
 0.5419343750 543.155270 34.033508
 0.5429328125 526.636727 33.517777
 0.5439312500 513.299586 33.090674
 0.5449296875 515.966741 33.233771
 0.5459281250 545.856469 34.129194
 0.5469265625 459.729404 31.543996
 0.5479250000 474.345080 32.065303
 0.5489234375 496.237322 32.494680
 0.5499218750 494.308504 32.484119
 0.5509203125 496.086165 32.726808
 0.5519187500 487.532335 32.261344
 0.5529171875 528.359685 33.842879
 0.5539156250 479.654984 32.047853
 0.5549140625 447.755365 30.710520
 0.5559125000 440.410254 30.714651
 0.5569109375 466.940324 31.839628
 0.5579093750 471.492879 31.790427
 0.5589078125 466.410256 31.621794
 0.5599062500 489.880971 32.429628
 0.5609046875 489.737597 32.331393
 0.5619031250 481.896343 32.210436
 0.5629015625 495.214932 32.462205
 0.5639000000 494.723250 32.474155
 0.5648984375 481.333475 32.122571
 0.5658968750 422.767759 29.972306
 0.5668953125 460.752020 31.291612
 0.5678937500 470.371536 31.611053
 0.5688921875 436.929528 30.329273
 0.5698906250 430.054747 30.382090
 0.5708890625 488.420913 32.334622
 0.5718875000 544.034975 33.777135
 0.5728859375 463.220040 31.310589
 0.5738843750 432.123864 30.203087
 0.5748828125 468.602244 31.474447
 0.5758812500 443.571323 30.627709
 0.5768796875 426.966673 29.972493
 0.5778781250 416.127362 29.419558
 0.5788765625 471.473764 31.415227
 0.5798750000 446.494446 30.511403
 0.5808734375 425.352658 29.868728
 0.5818718750 437.375889 30.408769
 0.5828703125 421.197532 29.639205
 0.5838687500 454.765526 30.765403
 0.5848671875 432.332192 30.077524
 0.5858656250 413.207474 29.317484
 0.5868640625 417.458550 29.645156
 0.5878625000 424.514301 30.031086
 0.5888609375 445.887823 30.755311
 0.5898593750 427.608002 30.147189
 0.5908578125 438.528794 30.566382
 0.5918562500 416.081985 29.712546
 0.5928546875 409.291016 29.556889
 0.5938531250 427.601891 30.265587
 0.5948515625 431.176403 30.321624
 0.5958500000 413.617633 29.763908
 0.5968484375 435.272841 30.514612
 0.5978468750 400.307661 29.556418
 0.5988453125 441.847601 30.877282
 0.5998437500 385.110073 28.608674
 0.6008421875 389.229660 28.947777
 0.6018406250 433.330558 30.580764
 0.6028390625 403.928842 29.366232
 0.6038375000 415.480902 29.860884
 0.6048359375 442.723262 30.808029
 0.6058343750 468.183537 31.537161
 0.6068328125 389.036194 28.753643
 0.6078312500 369.100105 27.971603
 0.6088296875 394.354098 29.062235
 0.6098281250 395.936701 29.180374
 0.6108265625 388.327975 28.825764
 0.6118250000 409.200823 29.596830
 0.6128234375 390.188639 28.705449
 0.6138218750 345.833256 27.146287
 0.6148203125 325.722076 26.443946
 0.6158187500 364.033048 27.959250
 0.6168171875 364.780285 27.829579
 0.6178156250 407.747236 29.323677
 0.6188140625 358.274338 27.640039
 0.6198125000 383.621455 28.584420
 0.6208109375 401.870422 29.297164
 0.6218093750 377.171441 28.257970
 0.6228078125 331.102474 26.392589
 0.6238062500 335.143839 26.592024
 0.6248046875 341.887301 26.924781
 0.6258031250 366.146415 27.882974
 0.6268015625 364.226662 27.761848
 0.6278000000 343.545731 26.813260
 0.6287984375 328.738221 26.164524
 0.6297968750 325.784706 26.206631
 0.6307953125 377.567696 28.197611
 0.6317937500 346.920192 27.050928
 0.6327921875 331.319495 26.381247
 0.6337906250 370.292840 27.658576
 0.6347890625 395.611110 28.634151
 0.6357875000 324.908582 26.150447
 0.6367859375 356.733381 27.536497
 0.6377843750 299.112460 25.289846
 0.6387828125 315.450740 25.867163
 0.6397812500 394.468498 28.869744
 0.6407796875 358.714403 27.519463
 0.6417781250 353.879097 27.449455
 0.6427765625 415.549813 30.008262
 0.6437750000 378.058508 28.392549
 0.6447734375 355.220856 27.420493
 0.6457718750 334.154993 26.738701
 0.6467703125 369.574332 28.309276
 0.6477687500 371.915863 28.342059
 0.6487671875 359.697407 27.818606
 0.6497656250 337.052920 26.895139
 0.6507640625 310.623074 25.812689
 0.6517625000 338.105371 26.948347
 0.6527609375 333.141452 26.752817
 0.6537593750 309.837888 25.773597
 0.6547578125 318.812795 26.136788
 0.6557562500 352.010227 27.509074
 0.6567546875 311.931779 25.846058
 0.6577531250 324.363508 26.220431
 0.6587515625 346.481769 27.130685
 0.6597500000 298.391623 25.368888
 0.6607484375 317.879430 26.197257
 0.6617468750 327.401130 26.364033
 0.6627453125 314.636152 25.863148
 0.6637437500 337.248494 26.817612
 0.6647421875 313.056651 25.715586
 0.6657406250 278.117968 24.294066
 0.6667390625 345.267552 27.055183
 0.6677375000 316.832107 25.916421
 0.6687359375 364.873380 27.835941
 0.6697343750 331.302839 26.582149
 0.6707328125 302.043516 25.426823
 0.6717312500 307.063429 25.538386
 0.6727296875 305.078710 25.467251
 0.6737281250 310.207006 25.721126
 0.6747265625 298.692545 25.189216
 0.6757250000 313.820487 25.594372
 0.6767234375 301.117235 25.121802
 0.6777218750 369.519459 27.813043
 0.6787203125 293.464092 24.787560
 0.6797187500 279.819512 24.237916
 0.6807171875 335.492867 26.599174
 0.6817156250 326.529034 26.222018
 0.6827140625 299.172915 25.163001
 0.6837125000 299.886002 25.055716
 0.6847109375 293.660482 24.811933
 0.6857093750 279.090382 24.325348
 0.6867078125 277.941512 24.236718
 0.6877062500 229.197453 21.924999
 0.6887046875 313.530293 25.705410
 0.6897031250 285.817426 24.608165
 0.6907015625 311.975403 25.923639
 0.6917000000 313.079777 25.850274
 0.6926984375 271.082308 24.018649
 0.6936968750 269.948649 24.160421
 0.6946953125 300.661614 25.441661
 0.6956937500 348.740115 27.314590
 0.6966921875 283.102757 24.653629
 0.6976906250 299.661002 25.343552
 0.6986890625 291.280022 25.015707
 0.6996875000 275.561454 24.420384
 0.7006859375 302.260728 25.422404
 0.7016843750 274.449614 24.179803
 0.7026828125 251.373548 23.214947
 0.7036812500 280.910019 24.611439
 0.7046796875 288.452006 25.069771
 0.7056781250 300.813562 25.422550
 0.7066765625 287.882313 24.680667
 0.7076750000 283.629467 24.633799
 0.7086734375 254.545009 23.438215
 0.7096718750 288.717102 24.854920
 0.7106703125 308.787026 25.689857
 0.7116687500 303.302026 25.519014
 0.7126671875 257.054933 23.415638
 0.7136656250 247.340183 23.073096
 0.7146640625 259.116464 23.527253
 0.7156625000 285.064446 24.680728
 0.7166609375 274.962115 24.433674
 0.7176593750 327.367883 26.412483
 0.7186578125 257.811396 23.381028
 0.7196562500 297.701990 25.110359
 0.7206546875 285.570809 24.621047
 0.7216531250 287.603496 24.877123
 0.7226515625 278.244467 24.402377
 0.7236500000 259.429554 23.403300
 0.7246484375 290.922182 24.733073
 0.7256468750 275.600035 24.024490
 0.7266453125 244.110414 22.816747
 0.7276437500 265.927775 23.739367
 0.7286421875 297.049397 24.997802
 0.7296406250 278.065840 24.031072
 0.7306390625 273.707950 23.891310
 0.7316375000 254.932223 23.129369
 0.7326359375 291.439683 24.933922
 0.7336343750 269.709136 23.807011
 0.7346328125 260.386520 23.229562
 0.7356312500 306.053935 25.284369
 0.7366296875 284.207573 24.460783
 0.7376281250 274.944674 23.973220
 0.7386265625 280.918247 24.588167
 0.7396250000 300.098187 25.430258
 0.7406234375 264.230627 23.524390
 0.7416218750 293.163786 24.975535
 0.7426203125 288.663541 24.879782
 0.7436187500 294.901513 25.247870
 0.7446171875 271.977587 24.157358
 0.7456156250 264.951034 23.649805
 0.7466140625 293.077410 25.039432
 0.7476125000 236.658514 22.607208
 0.7486109375 252.518404 23.232939
 0.7496093750 259.518189 23.667086
 0.7506078125 270.068781 24.243866
 0.7516062500 240.983144 22.744613
 0.7526046875 249.966530 23.215210
 0.7536031250 282.723438 24.637071
 0.7546015625 248.632344 23.035394
 0.7556000000 252.938577 23.390218
 0.7565984375 240.487978 22.732030
 0.7575968750 269.454519 23.871282
 0.7585953125 275.308745 24.254815
 0.7595937500 280.853088 24.512098
 0.7605921875 255.913293 23.612540
 0.7615906250 254.676564 23.471461
 0.7625890625 248.298435 22.918680
 0.7635875000 277.609737 24.278224
 0.7645859375 222.118638 21.791440
 0.7655843750 250.846495 23.152200
 0.7665828125 239.187256 22.681459
 0.7675812500 224.183255 21.875436
 0.7685796875 245.999938 22.805230
 0.7695781250 247.804829 23.054202
 0.7705765625 254.805452 23.396697
 0.7715750000 250.184766 23.050668
 0.7725734375 236.489700 22.241882
 0.7735718750 252.642090 23.109027
 0.7745703125 247.904287 22.891655
 0.7755687500 308.644418 25.641636
 0.7765671875 262.172167 23.424225
 0.7775656250 261.030903 23.434580
 0.7785640625 258.584870 23.416213
 0.7795625000 244.667710 22.680547
 0.7805609375 253.720730 23.063033
 0.7815593750 264.764437 23.598482
 0.7825578125 214.127545 21.158653
 0.7835562500 236.687308 22.260910
 0.7845546875 254.894819 23.151198
 0.7855531250 272.687423 23.936226
 0.7865515625 239.951609 22.625241
 0.7875500000 271.894301 24.043805
 0.7885484375 256.630065 23.311914
 0.7895468750 262.415358 23.599086
 0.7905453125 236.095634 22.505605
 0.7915437500 232.713169 22.362087
 0.7925421875 259.438738 23.604101
 0.7935406250 259.394960 23.433655
 0.7945390625 229.323755 22.125255
 0.7955375000 266.434709 23.943447
 0.7965359375 252.648002 23.262008
 0.7975343750 242.555152 22.720211
 0.7985328125 264.891679 23.803537
 0.7995312500 264.167565 23.743858
 0.8005296875 254.515386 23.476009
 0.8015281250 264.415186 23.831024
 0.8025265625 231.149446 22.176673
 0.8035250000 263.646621 23.873839
 0.8045234375 272.130306 24.228428
 0.8055218750 238.092299 22.520906
 0.8065203125 249.702828 23.125184
 0.8075187500 242.547979 22.638612
 0.8085171875 213.630463 21.368850
 0.8095156250 240.552025 22.742459
 0.8105140625 236.313919 22.474608
 0.8115125000 216.639390 21.493762
 0.8125109375 275.276873 24.309835
 0.8135093750 238.213512 22.574392
 0.8145078125 247.050173 22.967112
 0.8155062500 236.952747 22.493218
 0.8165046875 212.630916 21.240481
 0.8175031250 227.994171 22.098119
 0.8185015625 240.190922 22.721370
 0.8195000000 258.994306 23.376691
 0.8204984375 247.441308 22.917441
 0.8214968750 276.828305 24.312094
 0.8224953125 255.430710 23.437574
 0.8234937500 222.117025 21.713326
 0.8244921875 239.009386 22.467021
 0.8254906250 219.873529 21.473835
 0.8264890625 256.764163 23.299770
 0.8274875000 237.910410 22.382747
 0.8284859375 212.917261 21.161125
 0.8294843750 224.865109 21.787769
 0.8304828125 271.959614 23.752644
 0.8314812500 250.487524 22.868675
 0.8324796875 269.153054 23.871436
 0.8334781250 269.508225 23.827391
 0.8344765625 207.257246 20.815287
 0.8354750000 197.500720 20.327404
 0.8364734375 241.816131 22.537294
 0.8374718750 244.573348 22.791119
 0.8384703125 236.921158 22.480975
 0.8394687500 244.452054 22.871036
 0.8404671875 265.264348 23.810485
 0.8414656250 223.476249 21.742605
 0.8424640625 218.444368 21.600579
 0.8434625000 237.469033 22.634825
 0.8444609375 234.155847 22.493239
 0.8454593750 202.195295 20.918133
 0.8464578125 213.535611 21.372874
 0.8474562500 238.872942 22.578120
 0.8484546875 226.543298 22.101625
 0.8494531250 212.147927 21.428198
 0.8504515625 218.234323 21.576244
 0.8514500000 236.818133 22.635385
 0.8524484375 224.190820 22.070350
 0.8534468750 206.170502 21.001781
 0.8544453125 232.442108 22.298455
 0.8554437500 218.804513 21.622936
 0.8564421875 227.240854 22.018500
 0.8574406250 247.600268 23.050513
 0.8584390625 257.717491 23.414201
 0.8594375000 218.277360 21.674422
 0.8604359375 244.703676 22.952338
 0.8614343750 233.458864 22.246490
 0.8624328125 235.920281 22.492746
 0.8634312500 262.522614 23.727287
 0.8644296875 229.650558 22.089178
 0.8654281250 190.237970 20.113689
 0.8664265625 230.739155 22.214948
 0.8674250000 233.473199 22.244790
 0.8684234375 249.233869 22.987785
 0.8694218750 228.735756 22.047793
 0.8704203125 245.805507 22.878199
 0.8714187500 243.530582 22.691216
 0.8724171875 203.946321 20.817056
 0.8734156250 218.767342 21.580028
 0.8744140625 223.059003 21.763435
 0.8754125000 251.294617 22.899516
 0.8764109375 238.219400 22.413688
 0.8774093750 214.200615 21.251055
 0.8784078125 188.470049 19.862177
 0.8794062500 205.196076 20.718431
 0.8804046875 223.797560 21.640328
 0.8814031250 237.911796 22.279199
 0.8824015625 255.460750 23.116032
 0.8834000000 217.782462 21.350734
 0.8843984375 271.207193 23.860801
 0.8853968750 249.297314 22.805125
 0.8863953125 225.604259 21.737317
 0.8873937500 205.007414 20.889043
 0.8883921875 230.636891 22.117807
 0.8893906250 208.989665 21.083084
 0.8903890625 181.595206 19.679701
 0.8913875000 213.338611 21.349070
 0.8923859375 210.619806 21.183002
 0.8933843750 217.772404 21.548970
 0.8943828125 213.526322 21.348836
 0.8953812500 226.833071 22.013875
 0.8963796875 248.679534 23.116093
 0.8973781250 234.275248 22.401676
 0.8983765625 231.560810 22.235751
 0.8993750000 201.448461 20.812874
 0.9003734375 246.274588 23.007201
 0.9013718750 242.630905 23.006848
 0.9023703125 215.099253 21.517929
 0.9033687500 195.386001 20.381137
 0.9043671875 206.029136 21.014854
 0.9053656250 198.903420 20.713177
 0.9063640625 228.932015 22.138612
 0.9073625000 237.194180 22.547963
 0.9083609375 230.462934 22.185096
 0.9093593750 217.257525 21.563085
 0.9103578125 211.414091 21.221324
 0.9113562500 170.168631 19.042325
 0.9123546875 234.258464 22.299656
 0.9133531250 224.298887 21.918935
 0.9143515625 185.301277 19.877545
 0.9153500000 201.019984 20.666411
 0.9163484375 205.109666 20.848809
 0.9173468750 213.326322 21.165293
 0.9183453125 201.080351 20.763528
 0.9193437500 224.416102 21.808942
 0.9203421875 257.556244 23.263324
 0.9213406250 238.473301 22.506713
 0.9223390625 230.020224 22.128569
 0.9233375000 235.882227 22.394930
 0.9243359375 230.460292 22.249201
 0.9253343750 234.161233 22.261962
 0.9263328125 222.572787 21.638356
 0.9273312500 197.481292 20.364803
 0.9283296875 218.128275 21.416398
 0.9293281250 215.206688 21.409720
 0.9303265625 205.914506 20.895006
 0.9313250000 231.658940 21.954227
 0.9323234375 215.381499 21.206453
 0.9333218750 195.759375 20.277924
 0.9343203125 203.839445 20.735514
 0.9353187500 202.020445 20.620222
 0.9363171875 199.940524 20.495671
 0.9373156250 205.314461 20.754292
 0.9383140625 210.039402 21.071585
 0.9393125000 213.953972 21.330273
 0.9403109375 216.383554 21.584192
 0.9413093750 208.550744 21.073086
 0.9423078125 239.130004 22.474560
 0.9433062500 216.130630 21.434035
 0.9443046875 219.163509 21.679030
 0.9453031250 226.544616 22.082262
 0.9463015625 208.463830 21.243810
 0.9473000000 176.077502 19.476002
 0.9482984375 184.529061 19.891887
 0.9492968750 204.426430 21.070784
 0.9502953125 182.488006 19.851925
 0.9512937500 205.850148 20.901256
 0.9522921875 161.602457 18.547901
 0.9532906250 174.344969 19.386226
 0.9542890625 198.697329 20.641400
 0.9552875000 235.536321 22.432134
 0.9562859375 244.000276 22.773070
 0.9572843750 220.206221 21.790110
 0.9582828125 203.037525 20.894227
 0.9592812500 215.037750 21.390076
 0.9602796875 244.230272 22.799136
 0.9612781250 200.924578 20.817962
 0.9622765625 198.295519 20.636606
 0.9632750000 200.599427 20.806682
 0.9642734375 207.348110 21.098951
 0.9652718750 196.734721 20.310944
 0.9662703125 194.733445 20.351806
 0.9672687500 210.589216 21.248921
 0.9682671875 190.010103 19.939868
 0.9692656250 226.636421 21.859771
 0.9702640625 202.984406 20.800353
 0.9712625000 197.604859 20.478525
 0.9722609375 191.952973 20.253500
 0.9732593750 191.566168 20.167083
 0.9742578125 196.596852 20.389431
 0.9752562500 205.283982 20.792475
 0.9762546875 207.152287 20.907842
 0.9772531250 204.743402 20.823519
 0.9782515625 195.506668 20.268601
 0.9792500000 184.070906 19.623853
 0.9802484375 182.237285 19.581293
 0.9812468750 194.014496 20.241841
 0.9822453125 211.837518 21.007803
 0.9832437500 231.147977 22.087098
 0.9842421875 257.716677 23.265930
 0.9852406250 198.439156 20.208596
 0.9862390625 178.300010 19.355417
 0.9872375000 205.456857 20.814400
 0.9882359375 196.181931 20.459734
 0.9892343750 190.800137 20.254599
 0.9902328125 218.382212 21.469686
 0.9912312500 208.114599 21.015624
 0.9922296875 186.143282 20.043750
 0.9932281250 174.942414 19.416849
 0.9942265625 195.065922 20.542062
 0.9952250000 175.248341 19.362440
 0.9962234375 178.001031 19.522512
 0.9972218750 207.895232 21.199341
 0.9982203125 217.372675 21.704260
 0.9992187500 208.195065 20.890579
 1.0002171875 166.587439 18.912383
 1.0012156250 182.269145 19.888247
 1.0022140625 157.330061 18.382196
 1.0032125000 197.616746 20.581926
 1.0042109375 201.777288 20.833564
 1.0052093750 213.632862 21.366874
 1.0062078125 193.067391 20.423609
 1.0072062500 212.038161 21.299559
 1.0082046875 195.795544 20.421261
 1.0092031250 174.207280 19.271903
 1.0102015625 191.547631 20.209645
 1.0112000000 229.367770 22.172086
 1.0121984375 206.820047 20.998452
 1.0131968750 181.533150 19.557826
 1.0141953125 186.473985 20.049634
 1.0151937500 222.423509 21.964972
 1.0161921875 201.986213 20.738038
 1.0171906250 201.132997 20.732336
 1.0181890625 195.180615 20.415135
 1.0191875000 202.777104 20.716144
 1.0201859375 205.635013 21.028676
 1.0211843750 187.438851 20.028237
 1.0221828125 192.799120 20.143858
 1.0231812500 163.346799 18.570299
 1.0241796875 170.778735 19.048429
 1.0251781250 201.350826 20.705318
 1.0261765625 179.666240 19.575600
 1.0271750000 179.158124 19.448172
 1.0281734375 155.553367 18.061639
 1.0291718750 157.444360 18.326059
 1.0301703125 179.976739 19.358407
 1.0311687500 156.342577 18.142074
 1.0321671875 208.557573 20.920207
 1.0331656250 197.003593 20.288396
 1.0341640625 213.238771 21.074643
 1.0351625000 167.044105 18.715920
 1.0361609375 161.772000 18.455657
 1.0371593750 197.599919 20.414967
 1.0381578125 201.333025 20.605703
 1.0391562500 195.678646 20.298227
 1.0401546875 188.418531 20.094852
 1.0411531250 188.301217 20.075170
 1.0421515625 180.497776 19.653727
 1.0431500000 170.676192 19.059094
 1.0441484375 186.467072 19.851033
 1.0451468750 179.693754 19.701625
 1.0461453125 177.331652 19.621934
 1.0471437500 174.581414 19.262591
 1.0481421875 201.119392 20.804163
 1.0491406250 195.824574 20.564471
 1.0501390625 198.772185 20.665080
 1.0511375000 183.624921 19.875915
 1.0521359375 186.208285 20.003716
 1.0531343750 218.220380 21.511573
 1.0541328125 173.773613 19.308941
 1.0551312500 202.132813 20.762964
 1.0561296875 161.368395 18.445086
 1.0571281250 166.998870 18.796651
 1.0581265625 143.118589 17.376874
 1.0591250000 169.280176 19.073485
 1.0601234375 150.203836 17.931064
 1.0611218750 161.196263 18.401700
 1.0621203125 171.218169 19.097277
 1.0631187500 186.606621 20.131396
 1.0641171875 173.822128 19.107659
 1.0651156250 161.147298 18.452501
 1.0661140625 191.192015 20.127604
 1.0671125000 212.661648 21.377069
 1.0681109375 188.716848 20.077930
 1.0691093750 193.591827 20.268041
 1.0701078125 174.656420 19.147821
 1.0711062500 174.343783 19.181299
 1.0721046875 165.732719 18.820137
 1.0731031250 196.446337 20.526220
